|6.6.6
bulk_TMMFequ_1.tab                                                                                  
           2
T(K)    
   300.00000000000000     
   36.842105263157897     
          20
P(bar)  
   1.0000000000000000     
   157.84210526315789     
          20
           6
T(K)           P(bar)         rho,kg/m3      vp,km/s        vs,km/s        vp/vs         
  300.0000       1.000000       3257.926       7.379177       4.173719       1.768010    
  336.8421       1.000000       3060.603       7.060778       3.923906       1.799426    
  373.6842       1.000000       3047.545       7.019904       3.893148       1.803143    
  410.5263       1.000000       3033.821       6.977854       3.861975       1.806810    
  447.3684       1.000000       3031.033       6.960288       3.851632       1.807101    
  484.2105       1.000000       3027.935       6.941724       3.841064       1.807240    
  521.0526       1.000000       3005.459       6.886935       3.799414       1.812631    
  557.8947       1.000000       3003.239       6.871288       3.791522       1.812277    
  594.7368       1.000000       3000.870       6.855632       3.783642       1.811913    
  631.5789       1.000000       2998.544       6.839998       3.775936       1.811471    
  668.4211       1.000000       2996.101       6.824340       3.768245       1.811013    
  705.2632       1.000000       2993.579       6.808647       3.760593       1.810525    
  742.1053       1.000000       2990.985       6.792927       3.752989       1.810004    
  778.9474       1.000000       2988.318       6.777141       3.745381       1.809466    
  815.7895       1.000000       2985.653       6.761622       3.737265       1.809243    
  852.6316       1.000000       2982.864       6.746439       3.727835       1.809747    
  889.4737       1.000000       2980.022       6.731173       3.718342       1.810262    
  926.3158       1.000000       2977.143       6.715821       3.708792       1.810784    
  963.1579       1.000000       2974.213       6.700371       3.699166       1.811319    
  1000.000       1.000000       2971.296       6.684852       3.689538       1.811840    
  300.0000       158.8421       3259.770       7.383603       4.176561       1.767867    
  336.8421       158.8421       3246.600       7.349301       4.151245       1.770385    
  373.6842       158.8421       3051.997       7.031196       3.902265       1.801824    
  410.5263       158.8421       3034.406       6.980520       3.863939       1.806581    
  447.3684       158.8421       3031.644       6.963047       3.853629       1.806881    
  484.2105       158.8421       3028.643       6.945033       3.843178       1.807106    
  521.0526       158.8421       3006.124       6.889621       3.801471       1.812357    
  557.8947       158.8421       3003.954       6.874000       3.793638       1.811981    
  594.7368       158.8421       3001.661       6.858363       3.785827       1.811589    
  631.5789       158.8421       2999.279       6.842722       3.778061       1.811173    
  668.4211       158.8421       2996.839       6.827074       3.770375       1.810715    
  705.2632       158.8421       2994.327       6.811386       3.762725       1.810227    
  742.1053       158.8421       2991.743       6.795664       3.755113       1.809709    
  778.9474       158.8421       2989.114       6.779908       3.747556       1.809155    
  815.7895       158.8421       2986.438       6.764396       3.739422       1.808941    
  852.6316       158.8421       2983.633       6.749210       3.729975       1.809452    
  889.4737       158.8421       2980.772       6.733945       3.720466       1.809974    
  926.3158       158.8421       2977.911       6.718609       3.710942       1.810486    
  963.1579       158.8421       2974.995       6.703171       3.701335       1.811014    
  1000.000       158.8421       2972.072       6.687658       3.691706       1.811536    
  300.0000       316.6842       3261.502       7.387829       4.179231       1.767748    
  336.8421       316.6842       3248.839       7.354346       4.154519       1.770204    
  373.6842       316.6842       3055.847       7.041126       3.910286       1.800668    
  410.5263       316.6842       3034.973       6.982992       3.865953       1.806280    
  447.3684       316.6842       3032.250       6.965808       3.855644       1.806652    
  484.2105       316.6842       3029.264       6.947845       3.845220       1.806879    
  521.0526       316.6842       3006.804       6.892372       3.803270       1.812222    
  557.8947       316.6842       3004.672       6.876709       3.795755       1.811684    
  594.7368       316.6842       3002.356       6.861068       3.787910       1.811307    
  631.5789       316.6842       3000.024       6.845456       3.780208       1.810868    
  668.4211       316.6842       2997.584       6.829804       3.772504       1.810417    
  705.2632       316.6842       2995.078       6.814126       3.764862       1.809927    
  742.1053       316.6842       2992.504       6.798409       3.757252       1.809410    
  778.9474       316.6842       2989.878       6.782658       3.749690       1.808858    
  815.7895       316.6842       2987.208       6.767156       3.741555       1.808648    
  852.6316       316.6842       2984.404       6.751982       3.732118       1.809156    
  889.4737       316.6842       2981.561       6.736728       3.722627       1.809670    
  926.3158       316.6842       2978.686       6.721393       3.713091       1.810188    
  963.1579       316.6842       2975.757       6.705959       3.703477       1.810720    
  1000.000       316.6842       2972.838       6.690453       3.693854       1.811239    
  300.0000       474.5263       3263.160       7.391959       4.181877       1.767618    
  336.8421       474.5263       3250.930       7.359172       4.157710       1.770006    
  373.6842       474.5263       3059.552       7.050707       3.918009       1.799564    
  410.5263       474.5263       3039.858       6.995215       3.875816       1.804837    
  447.3684       474.5263       3032.854       6.968539       3.857653       1.806419    
  484.2105       474.5263       3029.879       6.950621       3.847255       1.806644    
  521.0526       474.5263       3026.530       6.931368       3.836631       1.806629    
  557.8947       474.5263       3005.395       6.879390       3.797869       1.811382    
  594.7368       474.5263       3003.120       6.863776       3.790078       1.810985    
  631.5789       474.5263       3000.763       6.848153       3.782333       1.810563    
  668.4211       474.5263       2998.334       6.832510       3.774639       1.810110    
  705.2632       474.5263       2995.820       6.816833       3.766981       1.809628    
  742.1053       474.5263       2993.250       6.801127       3.759376       1.809111    
  778.9474       474.5263       2990.637       6.785381       3.751820       1.808557    
  815.7895       474.5263       2987.918       6.769866       3.743621       1.808374    
  852.6316       474.5263       2985.174       6.754726       3.734256       1.808854    
  889.4737       474.5263       2982.335       6.739483       3.724777       1.809365    
  926.3158       474.5263       2979.452       6.724153       3.715238       1.809885    
  963.1579       474.5263       2976.553       6.708742       3.705663       1.810402    
  1000.000       474.5263       2973.615       6.693233       3.696022       1.810929    
  300.0000       632.3684       3264.688       7.395862       4.184360       1.767501    
  336.8421       632.3684       3253.523       7.364779       4.161266       1.769841    
  373.6842       632.3684       3062.477       7.058470       3.924116       1.798741    
  410.5263       632.3684       3048.055       7.014971       3.891669       1.802561    
  447.3684       632.3684       3033.458       6.971292       3.859669       1.806189    
  484.2105       632.3684       3030.497       6.953424       3.849292       1.806417    
  521.0526       632.3684       3027.104       6.933917       3.838646       1.806344    
  557.8947       632.3684       3006.119       6.882096       3.799987       1.811084    
  594.7368       632.3684       3003.847       6.866482       3.792188       1.810691    
  631.5789       632.3684       3001.511       6.850872       3.784463       1.810263    
  668.4211       632.3684       2999.080       6.835234       3.776763       1.809813    
  705.2632       632.3684       2996.590       6.819570       3.769128       1.809323    
  742.1053       632.3684       2994.030       6.803873       3.761530       1.808805    
  778.9474       632.3684       2991.395       6.788129       3.753950       1.808263    
  815.7895       632.3684       2988.753       6.772652       3.745825       1.808054    
  852.6316       632.3684       2985.953       6.757494       3.736400       1.808558    
  889.4737       632.3684       2983.111       6.742257       3.726922       1.809068    
  926.3158       632.3684       2980.233       6.726936       3.717391       1.809585    
  963.1579       632.3684       2977.328       6.711529       3.707814       1.810104    
  1000.000       632.3684       2974.396       6.696034       3.698190       1.810625    
  300.0000       790.2105       3266.136       7.399649       4.186739       1.767401    
  336.8421       790.2105       3255.627       7.369621       4.164411       1.769667    
  373.6842       790.2105       3240.800       7.333493       4.138690       1.771936    
  410.5263       790.2105       3053.055       7.027376       3.901653       1.801128    
  447.3684       790.2105       3034.064       6.974035       3.861659       1.805968    
  484.2105       790.2105       3031.113       6.956214       3.851318       1.806191    
  521.0526       790.2105       3027.736       6.936781       3.840717       1.806116    
  557.8947       790.2105       3006.796       6.884839       3.801751       1.810965    
  594.7368       790.2105       3004.600       6.869193       3.794324       1.810386    
  631.5789       790.2105       3002.261       6.853586       3.786591       1.809962    
  668.4211       790.2105       2999.842       6.837959       3.778902       1.809510    
  705.2632       790.2105       2997.353       6.822305       3.771268       1.809022    
  742.1053       790.2105       2994.792       6.806607       3.763657       1.808509    
  778.9474       790.2105       2992.145       6.790862       3.756057       1.807976    
  815.7895       790.2105       2989.539       6.775412       3.747969       1.807756    
  852.6316       790.2105       2986.733       6.760261       3.738544       1.808260    
  889.4737       790.2105       2983.852       6.745009       3.729020       1.808789    
  926.3158       790.2105       2981.007       6.729715       3.719538       1.809288    
  963.1579       790.2105       2978.115       6.714321       3.709978       1.809801    
  1000.000       790.2105       2975.182       6.698830       3.700353       1.810322    
  300.0000       948.0526       3267.523       7.403348       4.189082       1.767296    
  336.8421       948.0526       3257.875       7.374677       4.167652       1.769504    
  373.6842       948.0526       3243.699       7.339637       4.142728       1.771692    
  410.5263       948.0526       3058.967       7.041788       3.913265       1.799466    
  447.3684       948.0526       3034.674       6.976801       3.863665       1.805747    
  484.2105       948.0526       3031.740       6.959048       3.853363       1.805967    
  521.0526       948.0526       3028.404       6.939777       3.842827       1.805904    
  557.8947       948.0526       3025.013       6.920846       3.832251       1.805948    
  594.7368       948.0526       3005.362       6.871900       3.796463       1.810079    
  631.5789       948.0526       3003.073       6.856318       3.788785       1.809635    
  668.4211       948.0526       3000.649       6.840692       3.781084       1.809188    
  705.2632       948.0526       2998.178       6.825049       3.773463       1.808697    
  742.1053       948.0526       2995.608       6.809351       3.765834       1.808192    
  778.9474       948.0526       2993.011       6.793636       3.758294       1.807638    
  815.7895       948.0526       2990.322       6.778167       3.750107       1.807460    
  852.6316       948.0526       2987.518       6.763023       3.740686       1.807963    
  889.4737       948.0526       2984.678       6.747804       3.731221       1.808470    
  926.3158       948.0526       2981.802       6.732500       3.721704       1.808983    
  963.1579       948.0526       2978.902       6.717109       3.712138       1.809499    
  1000.000       948.0526       2975.962       6.701626       3.702516       1.810020    
  300.0000       1105.895       3268.820       7.406894       4.191313       1.767201    
  336.8421       1105.895       3259.398       7.378666       4.170233       1.769365    
  373.6842       1105.895       3246.488       7.345580       4.146555       1.771490    
  410.5263       1105.895       3063.157       7.052366       3.921654       1.798314    
  447.3684       1105.895       3035.235       6.979280       3.865661       1.805456    
  484.2105       1105.895       3032.353       6.961828       3.855383       1.805742    
  521.0526       1105.895       3029.040       6.942660       3.844908       1.805677    
  557.8947       1105.895       3025.646       6.923706       3.834320       1.805719    
  594.7368       1105.895       3006.158       6.874622       3.798645       1.809756    
  631.5789       1105.895       3003.837       6.859035       3.790917       1.809334    
  668.4211       1105.895       3001.433       6.843420       3.783244       1.808876    
  705.2632       1105.895       2998.952       6.827778       3.775605       1.808393    
  742.1053       1105.895       2996.349       6.812077       3.767939       1.807905    
  778.9474       1105.895       2993.776       6.796375       3.760421       1.807344    
  815.7895       1105.895       2991.109       6.780920       3.752245       1.807163    
  852.6316       1105.895       2988.281       6.765776       3.742805       1.807675    
  889.4737       1105.895       2985.452       6.750569       3.733357       1.808177    
  926.3158       1105.895       2982.595       6.735280       3.723865       1.808680    
  963.1579       1105.895       2979.684       6.719894       3.714293       1.809198    
  1000.000       1105.895       2976.753       6.704417       3.704678       1.809717    
  300.0000       1263.737       3270.058       7.410402       4.193512       1.767111    
  336.8421       1263.737       3261.227       7.383082       4.173062       1.769224    
  373.6842       1263.737       3248.978       7.351036       4.150091       1.771295    
  410.5263       1263.737       3230.835       7.310631       4.122293       1.773438    
  447.3684       1263.737       3048.461       7.009691       3.890372       1.801805    
  484.2105       1263.737       3032.966       6.964608       3.857403       1.805517    
  521.0526       1263.737       3029.650       6.945411       3.846905       1.805454    
  557.8947       1263.737       3026.297       6.926645       3.836430       1.805492    
  594.7368       1263.737       3006.859       6.877347       3.800575       1.809554    
  631.5789       1263.737       3004.579       6.861739       3.793029       1.809039    
  668.4211       1263.737       3002.205       6.846142       3.785385       1.808572    
  705.2632       1263.737       2999.734       6.830511       3.777759       1.808086    
  742.1053       1263.737       2997.187       6.814830       3.770143       1.807579    
  778.9474       1263.737       2994.575       6.799118       3.762575       1.807038    
  815.7895       1263.737       2991.879       6.783664       3.754363       1.806875    
  852.6316       1263.737       2989.096       6.768547       3.744978       1.807366    
  889.4737       1263.737       2986.225       6.753326       3.735483       1.807886    
  926.3158       1263.737       2983.384       6.738053       3.726014       1.808381    
  963.1579       1263.737       2980.470       6.722675       3.716447       1.808898    
  1000.000       1263.737       2977.551       6.707213       3.706851       1.809410    
  300.0000       1421.579       3271.226       7.413723       4.195600       1.767023    
  336.8421       1421.579       3262.925       7.387300       4.175827       1.769063    
  373.6842       1421.579       3251.366       7.356402       4.153577       1.771100    
  410.5263       1421.579       3233.914       7.317136       4.126606       1.773161    
  447.3684       1421.579       3057.768       7.031658       3.907839       1.799372    
  484.2105       1421.579       3033.577       6.967370       3.859406       1.805296    
  521.0526       1421.579       3030.278       6.948248       3.848956       1.805229    
  557.8947       1421.579       3026.932       6.929507       3.838493       1.805268    
  594.7368       1421.579       3023.423       6.910340       3.827902       1.805255    
  631.5789       1421.579       3005.380       6.864459       3.795205       1.808719    
  668.4211       1421.579       3002.965       6.848858       3.787515       1.808272    
  705.2632       1421.579       3000.519       6.833234       3.779902       1.807781    
  742.1053       1421.579       2997.964       6.817568       3.772290       1.807276    
  778.9474       1421.579       2995.371       6.801862       3.764732       1.806732    
  815.7895       1421.579       2992.688       6.786419       3.756519       1.806571    
  852.6316       1421.579       2989.892       6.771301       3.747119       1.807069    
  889.4737       1421.579       2987.057       6.756111       3.737678       1.807569    
  926.3158       1421.579       2984.180       6.740830       3.728173       1.808078    
  963.1579       1421.579       2981.279       6.725462       3.718622       1.808590    
  1000.000       1421.579       2978.349       6.710006       3.709022       1.809104    
  300.0000       1579.421       3272.332       7.417014       4.197697       1.766925    
  336.8421       1579.421       3264.562       7.391394       4.178365       1.768968    
  373.6842       1579.421       3253.052       7.360678       4.156420       1.770918    
  410.5263       1579.421       3236.709       7.323204       4.130684       1.772879    
  447.3684       1579.421       3063.026       7.044519       3.918102       1.797942    
  484.2105       1579.421       3043.975       6.991486       3.878822       1.802477    
  521.0526       1579.421       3030.905       6.951078       3.850996       1.805008    
  557.8947       1579.421       3027.580       6.932408       3.840543       1.805059    
  594.7368       1579.421       3024.084       6.913305       3.830009       1.805036    
  631.5789       1579.421       3006.059       6.867126       3.797229       1.808457    
  668.4211       1579.421       3003.773       6.851582       3.789687       1.807955    
  705.2632       1579.421       3001.306       6.835961       3.782055       1.807473    
  742.1053       1579.421       2998.765       6.820295       3.774440       1.806968    
  778.9474       1579.421       2996.170       6.804606       3.766885       1.806428    
  815.7895       1579.421       2993.492       6.789174       3.758672       1.806269    
  852.6316       1579.421       2990.694       6.774063       3.749275       1.806766    
  889.4737       1579.421       2987.850       6.758872       3.739823       1.807271    
  926.3158       1579.421       2984.980       6.743604       3.730332       1.807776    
